Frequency	Permittivity	Loss Factor	Conductivity
(Hz)			(S/m)
9.9339E+5	3.3479E+2	6.8395E+2	3.7799E-2
1.0892E+6	3.0890E+2	6.1795E+2	3.7446E-2
1.1943E+6	2.9501E+2	5.9688E+2	3.9659E-2
1.3095E+6	3.1438E+2	5.4834E+2	3.9948E-2
1.4359E+6	2.7098E+2	4.8448E+2	3.8702E-2
1.5744E+6	2.5717E+2	4.8251E+2	4.2263E-2
1.7263E+6	2.4580E+2	4.6428E+2	4.4589E-2
1.8929E+6	2.3504E+2	4.1458E+2	4.3658E-2
2.0755E+6	2.1075E+2	3.8107E+2	4.4000E-2
2.2757E+6	2.1814E+2	3.7564E+2	4.7557E-2
2.4953E+6	1.9055E+2	3.6178E+2	5.0222E-2
2.7360E+6	1.7404E+2	3.1932E+2	4.8604E-2
3.0000E+6	1.7273E+2	3.2208E+2	5.3755E-2
3.2894E+6	1.6134E+2	2.7941E+2	5.1132E-2
3.6068E+6	1.5344E+2	2.8629E+2	5.7445E-2
3.9548E+6	1.3559E+2	2.5348E+2	5.5769E-2
4.3363E+6	1.2327E+2	2.4360E+2	5.8766E-2
4.7547E+6	1.1907E+2	2.2177E+2	5.8662E-2
5.2134E+6	1.1018E+2	2.0584E+2	5.9701E-2
5.7164E+6	1.0859E+2	1.9913E+2	6.3328E-2
6.2679E+6	1.0281E+2	1.8301E+2	6.3815E-2
6.8726E+6	9.8599E+1	1.7346E+2	6.6322E-2
7.5357E+6	9.0841E+1	1.5884E+2	6.6591E-2
8.2627E+6	8.3419E+1	1.4707E+2	6.7604E-2
9.0599E+6	8.0198E+1	1.3519E+2	6.8137E-2
9.9339E+6	7.7774E+1	1.2844E+2	7.0983E-2
1.0892E+7	7.5292E+1	1.2016E+2	7.2815E-2
1.1943E+7	7.2415E+1	1.1113E+2	7.3838E-2
1.3095E+7	6.7828E+1	1.0485E+2	7.6390E-2
1.4359E+7	6.4974E+1	9.8691E+1	7.8836E-2
1.5744E+7	6.2893E+1	9.1844E+1	8.0446E-2
1.7263E+7	6.0160E+1	8.6206E+1	8.2792E-2
1.8929E+7	5.8270E+1	8.0090E+1	8.4340E-2
2.0755E+7	5.5527E+1	7.5377E+1	8.7034E-2
2.2757E+7	5.3559E+1	7.0729E+1	8.9546E-2
2.4953E+7	5.1664E+1	6.6134E+1	9.1806E-2
2.7360E+7	4.9910E+1	6.2962E+1	9.5835E-2
3.0000E+7	4.8564E+1	5.8738E+1	9.8032E-2
3.2894E+7	4.6740E+1	5.5653E+1	1.0184E-1
3.6068E+7	4.4886E+1	5.1954E+1	1.0425E-1
3.9548E+7	4.3332E+1	4.9218E+1	1.0829E-1
4.3363E+7	4.1335E+1	4.6688E+1	1.1263E-1
4.7547E+7	4.0009E+1	4.3656E+1	1.1548E-1
5.2134E+7	3.8740E+1	4.1146E+1	1.1934E-1
5.7164E+7	3.7138E+1	3.8759E+1	1.2326E-1
6.2679E+7	3.5915E+1	3.6561E+1	1.2749E-1
6.8726E+7	3.4746E+1	3.4358E+1	1.3136E-1
7.5357E+7	3.3396E+1	3.2345E+1	1.3560E-1
8.2627E+7	3.2476E+1	3.0390E+1	1.3970E-1
9.0599E+7	3.1320E+1	2.8550E+1	1.4390E-1
9.9339E+7	3.0338E+1	2.6815E+1	1.4819E-1
1.0892E+8	2.9169E+1	2.5298E+1	1.5330E-1
1.1943E+8	2.8244E+1	2.3883E+1	1.5869E-1
1.3095E+8	2.7311E+1	2.2402E+1	1.6320E-1
1.4359E+8	2.6434E+1	2.1045E+1	1.6811E-1
1.5744E+8	2.5858E+1	1.9646E+1	1.7208E-1
1.7263E+8	2.5352E+1	1.8380E+1	1.7652E-1
1.8929E+8	2.4719E+1	1.7231E+1	1.8145E-1
2.0755E+8	2.4103E+1	1.6068E+1	1.8553E-1
2.2757E+8	2.3426E+1	1.5018E+1	1.9014E-1
2.4953E+8	2.2945E+1	1.4016E+1	1.9457E-1
2.7360E+8	2.2616E+1	1.3126E+1	1.9979E-1
3.0000E+8	2.2227E+1	1.2317E+1	2.0557E-1
3.2894E+8	2.1843E+1	1.1437E+1	2.0929E-1
3.6068E+8	2.1542E+1	1.0714E+1	2.1499E-1
3.9548E+8	2.1272E+1	1.0072E+1	2.2159E-1
4.3363E+8	2.1081E+1	9.4288E+0	2.2746E-1
4.7547E+8	2.0776E+1	8.8621E+0	2.3442E-1
5.2134E+8	2.0627E+1	8.4057E+0	2.4380E-1
5.7164E+8	2.0404E+1	7.9398E+0	2.5250E-1
6.2679E+8	2.0248E+1	7.5428E+0	2.6302E-1
6.8726E+8	2.0045E+1	7.2196E+0	2.7604E-1
7.5357E+8	1.9901E+1	6.9291E+0	2.9049E-1
7.5757E+8	1.8714E+1	6.8460E+0	2.8853E-1
7.9670E+8	1.8842E+1	6.6018E+0	2.9261E-1
8.3785E+8	1.8588E+1	6.3225E+0	2.9470E-1
8.8112E+8	1.8666E+1	6.2784E+0	3.0776E-1
9.2663E+8	1.8560E+1	5.9658E+0	3.0754E-1
9.7449E+8	1.8435E+1	5.8170E+0	3.1536E-1
1.0248E+9	1.8437E+1	5.9235E+0	3.3772E-1
1.0778E+9	1.8350E+1	5.6077E+0	3.3623E-1
1.1334E+9	1.8405E+1	5.4609E+0	3.4433E-1
1.1920E+9	1.8307E+1	5.4055E+0	3.5845E-1
1.2535E+9	1.8329E+1	5.2416E+0	3.6553E-1
1.3183E+9	1.8177E+1	5.2196E+0	3.8280E-1
1.3864E+9	1.8041E+1	5.1655E+0	3.9839E-1
1.4580E+9	1.8015E+1	4.9546E+0	4.0186E-1
1.5333E+9	1.8016E+1	4.8916E+0	4.1725E-1
1.6125E+9	1.7981E+1	4.8225E+0	4.3260E-1
1.6957E+9	1.7881E+1	4.7503E+0	4.4814E-1
1.7833E+9	1.7794E+1	4.6853E+0	4.6483E-1
1.8754E+9	1.7792E+1	4.6535E+0	4.8552E-1
1.9723E+9	1.7721E+1	4.5404E+0	4.9819E-1
2.0742E+9	1.7672E+1	4.5719E+0	5.2756E-1
2.1813E+9	1.7600E+1	4.5008E+0	5.4618E-1
2.2939E+9	1.7500E+1	4.5152E+0	5.7622E-1
2.4124E+9	1.7462E+1	4.4878E+0	6.0230E-1
2.5370E+9	1.7383E+1	4.4953E+0	6.3447E-1
2.6681E+9	1.7340E+1	4.5250E+0	6.7165E-1
2.8059E+9	1.7256E+1	4.5131E+0	7.0448E-1
2.9508E+9	1.7214E+1	4.5275E+0	7.4324E-1
3.1032E+9	1.7148E+1	4.5847E+0	7.9149E-1
3.2635E+9	1.7047E+1	4.6139E+0	8.3767E-1
3.4320E+9	1.6982E+1	4.6414E+0	8.8619E-1
3.6093E+9	1.6874E+1	4.6615E+0	9.3601E-1
3.7957E+9	1.6850E+1	4.7272E+0	9.9821E-1
3.9917E+9	1.6702E+1	4.7996E+0	1.0659E+0
4.1979E+9	1.6632E+1	4.9119E+0	1.1471E+0
4.4147E+9	1.6535E+1	4.9498E+0	1.2157E+0
4.6427E+9	1.6464E+1	5.1347E+0	1.3262E+0
4.8825E+9	1.6347E+1	5.2496E+0	1.4259E+0
5.1347E+9	1.6213E+1	5.3492E+0	1.5280E+0
5.3999E+9	1.6026E+1	5.4800E+0	1.6463E+0
5.6788E+9	1.5868E+1	5.6240E+0	1.7768E+0
5.9721E+9	1.5663E+1	5.6856E+0	1.8890E+0
6.2806E+9	1.5481E+1	5.8396E+0	2.0404E+0
6.6050E+9	1.5293E+1	5.9624E+0	2.1909E+0
6.9461E+9	1.5054E+1	6.0606E+0	2.3420E+0
7.3049E+9	1.4842E+1	6.1885E+0	2.5149E+0
7.6822E+9	1.4584E+1	6.2812E+0	2.6845E+0
8.0789E+9	1.4366E+1	6.4056E+0	2.8790E+0
8.4962E+9	1.4080E+1	6.4920E+0	3.0686E+0
8.9350E+9	1.3812E+1	6.5602E+0	3.2609E+0
9.3965E+9	1.3482E+1	6.6241E+0	3.4628E+0
9.8818E+9	1.3182E+1	6.6718E+0	3.6679E+0
1.0392E+10	1.2926E+1	6.6960E+0	3.8712E+0
1.0929E+10	1.2637E+1	6.7004E+0	4.0739E+0
1.1493E+10	1.2333E+1	6.7643E+0	4.3252E+0
1.2087E+10	1.2112E+1	6.7034E+0	4.5076E+0
1.2711E+10	1.1816E+1	6.7462E+0	4.7707E+0
1.3368E+10	1.1493E+1	6.7210E+0	4.9984E+0
1.4058E+10	1.1234E+1	6.6849E+0	5.2283E+0
1.4784E+10	1.0980E+1	6.6342E+0	5.4566E+0
1.5548E+10	1.0689E+1	6.5834E+0	5.6945E+0
1.6351E+10	1.0492E+1	6.5784E+0	5.9840E+0
1.7196E+10	1.0244E+1	6.5745E+0	6.2894E+0
1.8084E+10	9.9907E+0	6.5109E+0	6.5502E+0
1.9018E+10	9.7131E+0	6.4448E+0	6.8186E+0
2.0000E+10	9.5093E+0	6.4026E+0	7.1238E+0